wavelength	irradiance
308.9407	0
309.5194	0
310.098	0
310.6765	0
311.2548	0
311.833	0
312.4111	0
312.9891	0
313.5669	0
314.1446	0
314.7222	0
315.2997	0
315.877	0
316.4542	0
317.0313	0
317.6083	0
318.1851	0
318.7619	0
319.3385	0
319.9149	0
320.4913	0
321.0675	0
321.6436	0
322.2196	0
322.7954	0
323.3711	0
323.9467	0
324.5222	0
325.0976	0
325.6728	0
326.2479	0
326.8229	0
327.3977	0
327.9725	0
328.5471	0
329.1216	0
329.6959	0
330.2702	0
330.8443	0
331.4182	0
331.9921	0
332.5658	0
333.1395	0
333.7129	0
334.2863	0
334.8595	0
335.4327	0
336.0056	0
336.5785	0
337.1513	0
337.7239	0
338.2964	0
338.8687	0
339.441	0
340.0131	0
340.5851	0
341.157	0
341.7287	0
342.3003	0
342.8718	0
343.4432	0
344.0145	0
344.5856	0
345.1566	0
345.7275	0
346.2982	0
346.8688	0
347.4393	0
348.0097	0
348.58	0
349.1501	0
349.7201	0
350.29	0.0002
350.8597	0.0002
351.4294	0.0002
351.9989	0.0002
352.5683	0.0002
353.1375	0.0002
353.7067	0.0002
354.2757	0.0002
354.8446	0.0002
355.4133	0.0002
355.982	0.0002
356.5505	0.0002
357.1189	0.0002
357.6871	0.0002
358.2553	0.0002
358.8233	0.0002
359.3912	0.0002
359.9589	0.0003
360.5266	0.0002
361.0941	0.0002
361.6615	0.0002
362.2288	0.0002
362.7959	0.0002
363.3629	0.0002
363.9298	0.0002
364.4966	0.0002
365.0633	0.0002
365.6298	0.0002
366.1962	0.0002
366.7625	0.0002
367.3286	0.0002
367.8946	0.0002
368.4605	0.0002
369.0263	0.0002
369.592	0.0002
370.1575	0.0002
370.7229	0.0002
371.2882	0.0002
371.8533	0.0002
372.4184	0.0002
372.9833	0.0002
373.5481	0.0002
374.1127	0.0002
374.6773	0.0002
375.2417	0.0002
375.806	0.0002
376.3701	0.0002
376.9342	0.0002
377.4981	0.0002
378.0619	0.0002
378.6255	0.0002
379.1891	0.0002
379.7525	0.0002
380.3158	0.0002
380.8789	0.0001
381.442	0.0002
382.0049	0.0002
382.5677	0.0002
383.1304	0.0002
383.6929	0.0002
384.2553	0.0002
384.8176	0.0002
385.3798	0.0002
385.9418	0.0002
386.5038	0.0002
387.0656	0.0002
387.6272	0.0002
388.1888	0.0002
388.7502	0.0002
389.3115	0.0002
389.8727	0.0002
390.4337	0.0002
390.9947	0.0002
391.5555	0.0002
392.1162	0.0002
392.6767	0.0002
393.2371	0.0002
393.7975	0.0002
394.3576	0.0002
394.9177	0.0002
395.4776	0.0002
396.0374	0.0002
396.5971	0.0002
397.1567	0.0002
397.7161	0.0002
398.2754	0.0002
398.8346	0.0002
399.3937	0.0002
399.9526	0.0002
400.5114	0.0002
401.0701	0.0002
401.6287	0.0002
402.1871	0.0003
402.7455	0.0002
403.3037	0.0002
403.8617	0.0002
404.4197	0.0003
404.9775	0.0003
405.5352	0.0003
406.0928	0.0003
406.6502	0.0003
407.2075	0.0004
407.7647	0.0004
408.3218	0.0004
408.8787	0.0004
409.4356	0.0004
409.9923	0.0005
410.5489	0.0005
411.1053	0.0005
411.6616	0.0006
412.2178	0.0007
412.7739	0.0007
413.3299	0.0008
413.8857	0.0009
414.4414	0.001
414.997	0.0011
415.5524	0.0012
416.1078	0.0013
416.663	0.0014
417.2181	0.0015
417.773	0.0017
418.3279	0.0019
418.8826	0.0021
419.4372	0.0023
419.9916	0.0025
420.546	0.0029
421.1002	0.0031
421.6543	0.0035
422.2082	0.0038
422.7621	0.0041
423.3158	0.0046
423.8694	0.0052
424.4229	0.0054
424.9762	0.006
425.5294	0.0066
426.0825	0.0071
426.6355	0.0077
427.1883	0.0084
427.7411	0.0091
428.2937	0.0099
428.8461	0.0106
429.3985	0.0114
429.9507	0.0122
430.5028	0.013
431.0548	0.014
431.6066	0.0148
432.1584	0.0159
432.71	0.017
433.2614	0.0183
433.8128	0.0189
434.364	0.0204
434.9151	0.0215
435.4661	0.0226
436.017	0.024
436.5677	0.0251
437.1183	0.0269
437.6688	0.0284
438.2192	0.0297
438.7694	0.0311
439.3195	0.0329
439.8695	0.0342
440.4194	0.0361
440.9691	0.0376
441.5187	0.0397
442.0682	0.0415
442.6176	0.043
443.1668	0.0441
443.7159	0.0464
444.2649	0.0469
444.8138	0.0493
445.3625	0.05
445.9111	0.051
446.4596	0.0513
447.008	0.0513
447.5563	0.0519
448.1044	0.0516
448.6524	0.0514
449.2002	0.0509
449.748	0.0496
450.2956	0.0485
450.8431	0.0466
451.3905	0.0453
451.9377	0.0429
452.4849	0.0415
453.0319	0.0387
453.5788	0.0367
454.1255	0.0343
454.6721	0.0324
455.2186	0.0301
455.765	0.0282
456.3113	0.0263
456.8574	0.0244
457.4034	0.023
457.9493	0.0213
458.4951	0.0199
459.0407	0.0186
459.5862	0.0176
460.1316	0.0166
460.6769	0.0159
461.222	0.0151
461.767	0.0144
462.3119	0.0137
462.8567	0.0133
463.4013	0.0127
463.9458	0.0123
464.4902	0.0118
465.0345	0.0114
465.5786	0.011
466.1226	0.0106
466.6665	0.0103
467.2103	0.0099
467.7539	0.0095
468.2975	0.0092
468.8409	0.0088
469.3841	0.0084
469.9273	0.008
470.4703	0.0078
471.0132	0.0075
471.556	0.0071
472.0986	0.0069
472.6412	0.0066
473.1836	0.0064
473.7258	0.0061
474.268	0.006
474.81	0.0057
475.3519	0.0056
475.8937	0.0054
476.4354	0.0053
476.9769	0.0052
477.5183	0.0051
478.0596	0.005
478.6007	0.0049
479.1418	0.0048
479.6827	0.0047
480.2235	0.0047
480.7641	0.0046
481.3047	0.0047
481.8451	0.0047
482.3854	0.0045
482.9255	0.0046
483.4656	0.0046
484.0055	0.0046
484.5453	0.0046
485.0849	0.0046
485.6245	0.0045
486.1639	0.0046
486.7032	0.0046
487.2424	0.0047
487.7814	0.0047
488.3203	0.0047
488.8591	0.0048
489.3978	0.0049
489.9363	0.005
490.4748	0.0051
491.0131	0.0053
491.5512	0.0054
492.0893	0.0056
492.6272	0.0057
493.165	0.0059
493.7027	0.0061
494.2402	0.0064
494.7777	0.0066
495.315	0.0068
495.8522	0.0071
496.3892	0.0073
496.9261	0.0076
497.463	0.0078
497.9996	0.0082
498.5362	0.0084
499.0726	0.0087
499.6089	0.009
500.1451	0.0093
500.6812	0.0096
501.2171	0.0099
501.7529	0.0103
502.2886	0.0106
502.8242	0.0109
503.3596	0.0111
503.8949	0.0114
504.4301	0.0118
504.9652	0.012
505.5001	0.0124
506.0349	0.0127
506.5696	0.0129
507.1042	0.0131
507.6387	0.0134
508.173	0.0137
508.7072	0.0139
509.2412	0.0141
509.7752	0.0143
510.309	0.0146
510.8427	0.0148
511.3763	0.0148
511.9097	0.0151
512.4431	0.0153
512.9763	0.0155
513.5093	0.0156
514.0423	0.0158
514.5751	0.0159
515.1078	0.016
515.6404	0.0161
516.1728	0.0163
516.7052	0.0164
517.2374	0.0165
517.7695	0.0166
518.3014	0.0167
518.8333	0.0169
519.365	0.0169
519.8965	0.0171
520.428	0.0171
520.9593	0.0172
521.4906	0.0173
522.0216	0.0174
522.5526	0.0175
523.0834	0.0176
523.6142	0.0177
524.1447	0.0179
524.6752	0.0179
525.2056	0.018
525.7358	0.018
526.2659	0.0181
526.7958	0.0183
527.3257	0.0184
527.8554	0.0185
528.385	0.0186
528.9145	0.0187
529.4438	0.0188
529.973	0.019
530.5021	0.0191
531.0311	0.0191
531.5599	0.0192
532.0887	0.0193
532.6173	0.0193
533.1457	0.0194
533.6741	0.0195
534.2023	0.0196
534.7304	0.0197
535.2584	0.0198
535.7863	0.0199
536.314	0.02
536.8416	0.0201
537.3691	0.0202
537.8964	0.0201
538.4237	0.0202
538.9508	0.0202
539.4778	0.0202
540.0046	0.0202
540.5313	0.0202
541.058	0.0203
541.5844	0.0202
542.1108	0.0202
542.637	0.0201
543.1632	0.02
543.6891	0.02
544.215	0.02
544.7407	0.0199
545.2664	0.0198
545.7919	0.0198
546.3172	0.0198
546.8425	0.0197
547.3676	0.0196
547.8926	0.0195
548.4174	0.0195
548.9422	0.0193
549.4668	0.0192
549.9913	0.0192
550.5157	0.019
551.0399	0.0189
551.5641	0.0188
552.0881	0.0187
552.6119	0.0186
553.1357	0.0184
553.6593	0.0184
554.1828	0.0183
554.7062	0.0182
555.2294	0.0181
555.7526	0.018
556.2756	0.0179
556.7985	0.0178
557.3212	0.0177
557.8438	0.0177
558.3664	0.0176
558.8887	0.0176
559.411	0.0176
559.9331	0.0176
560.4551	0.0175
560.977	0.0175
561.4988	0.0175
562.0204	0.0175
562.5419	0.0175
563.0633	0.0176
563.5846	0.0176
564.1057	0.0175
564.6267	0.0177
565.1476	0.0178
565.6684	0.0178
566.189	0.0179
566.7096	0.018
567.23	0.0181
567.7502	0.0182
568.2704	0.0183
568.7904	0.0184
569.3103	0.0185
569.8301	0.0185
570.3497	0.0188
570.8692	0.0188
571.3886	0.0189
571.9079	0.019
572.427	0.0191
572.9461	0.0193
573.465	0.0194
573.9838	0.0195
574.5024	0.0196
575.0209	0.0198
575.5393	0.0199
576.0576	0.0201
576.5758	0.0202
577.0938	0.0201
577.6117	0.0203
578.1295	0.0204
578.6471	0.0205
579.1647	0.0206
579.6821	0.0207
580.1994	0.0208
580.7165	0.0208
581.2336	0.0209
581.7505	0.0208
582.2673	0.0211
582.7839	0.021
583.3005	0.0211
583.8169	0.0211
584.3332	0.0211
584.8493	0.0211
585.3654	0.021
585.8813	0.021
586.3971	0.0212
586.9128	0.0211
587.4283	0.021
587.9437	0.0211
588.459	0.0209
588.9742	0.0208
589.4892	0.0208
590.0042	0.0207
590.519	0.0208
591.0336	0.0206
591.5482	0.0204
592.0626	0.0205
592.5769	0.0203
593.0911	0.0203
593.6051	0.0201
594.1191	0.0201
594.6329	0.0201
595.1466	0.0199
595.6601	0.0199
596.1735	0.0197
596.6868	0.0196
597.2	0.0195
597.7131	0.0195
598.226	0.0193
598.7388	0.0193
599.2515	0.019
599.7641	0.0189
600.2765	0.0188
600.7888	0.0187
601.301	0.0186
601.8131	0.0185
602.325	0.0183
602.8368	0.0182
603.3485	0.0182
603.8601	0.0179
604.3715	0.0179
604.8828	0.0178
605.394	0.0175
605.9051	0.0174
606.416	0.0173
606.9269	0.0173
607.4375	0.0172
607.9481	0.0169
608.4586	0.0168
608.9689	0.0168
609.4791	0.0166
609.9892	0.0167
610.4991	0.0165
611.0089	0.0164
611.5186	0.0162
612.0282	0.0163
612.5377	0.016
613.047	0.016
613.5562	0.0159
614.0653	0.0158
614.5742	0.0158
615.0831	0.0157
615.5918	0.0155
616.1003	0.0154
616.6088	0.0154
617.1171	0.0153
617.6253	0.0152
618.1334	0.0151
618.6414	0.0149
619.1492	0.0149
619.6569	0.0149
620.1645	0.0148
620.672	0.0147
621.1793	0.0146
621.6865	0.0144
622.1936	0.0144
622.7006	0.0143
623.2074	0.0142
623.7141	0.0142
624.2207	0.0141
624.7272	0.014
625.2335	0.0139
625.7398	0.0138
626.2458	0.0136
626.7518	0.0135
627.2577	0.0136
627.7634	0.0134
628.269	0.0133
628.7745	0.0132
629.2798	0.013
629.785	0.013
630.2901	0.0129
630.7951	0.0128
631.3	0.0127
631.8047	0.0125
632.3093	0.0125
632.8138	0.0125
633.3181	0.0122
633.8223	0.0121
634.3264	0.0121
634.8304	0.012
635.3343	0.0118
635.838	0.0116
636.3416	0.0116
636.8451	0.0115
637.3485	0.0114
637.8517	0.0113
638.3548	0.0111
638.8578	0.0111
639.3607	0.0109
639.8634	0.0108
640.366	0.0108
640.8685	0.0105
641.3709	0.0105
641.8731	0.0104
642.3752	0.0102
642.8772	0.0102
643.3791	0.0101
643.8808	0.0099
644.3824	0.0098
644.8839	0.0097
645.3853	0.0096
645.8865	0.0094
646.3877	0.0094
646.8887	0.0093
647.3895	0.0092
647.8903	0.0091
648.3909	0.009
648.8914	0.0089
649.3918	0.0088
649.892	0.0087
650.3921	0.0085
650.8921	0.0085
651.392	0.0084
651.8918	0.0082
652.3914	0.0082
652.8909	0.008
653.3903	0.008
653.8895	0.0079
654.3887	0.0079
654.8877	0.0078
655.3866	0.0077
655.8853	0.0075
656.384	0.0074
656.8825	0.0074
657.3809	0.0074
657.8791	0.0072
658.3773	0.0072
658.8753	0.0071
659.3732	0.0071
659.8709	0.0071
660.3686	0.0069
660.8661	0.0068
661.3635	0.0068
661.8607	0.0068
662.3579	0.0066
662.8549	0.0066
663.3518	0.0065
663.8485	0.0065
664.3452	0.0064
664.8417	0.0063
665.3381	0.0063
665.8344	0.0063
666.3305	0.0063
666.8265	0.0062
667.3224	0.0062
667.8182	0.0061
668.3139	0.0062
668.8094	0.006
669.3048	0.0059
669.8001	0.0058
670.2952	0.0059
670.7902	0.0059
671.2852	0.0059
671.7799	0.0059
672.2746	0.0058
672.7691	0.0058
673.2635	0.0057
673.7578	0.0058
674.252	0.0058
674.746	0.0057
675.2399	0.0057
675.7337	0.0057
676.2273	0.0057
676.7209	0.0057
677.2143	0.0056
677.7076	0.0057
678.2007	0.0056
678.6938	0.0056
679.1867	0.0056
679.6795	0.0056
680.1722	0.0057
680.6647	0.0055
681.1571	0.0056
681.6494	0.0056
682.1416	0.0055
682.6336	0.0056
683.1255	0.0055
683.6173	0.0056
684.109	0.0056
684.6005	0.0056
685.092	0.0056
685.5833	0.0056
686.0744	0.0056
686.5655	0.0056
687.0564	0.0056
687.5472	0.0055
688.0379	0.0056
688.5284	0.0055
689.0189	0.0056
689.5092	0.0057
689.9994	0.0057
690.4894	0.0056
690.9793	0.0055
691.4691	0.0056
691.9588	0.0056
692.4484	0.0057
692.9378	0.0055
693.4271	0.0056
693.9163	0.0056
694.4054	0.0056
694.8943	0.0056
695.3831	0.0057
695.8718	0.0055
696.3604	0.0056
696.8488	0.0057
697.3371	0.0056
697.8253	0.0056
698.3134	0.0056
698.8013	0.0056
699.2891	0.0055
699.7768	0.0056
700.2644	0.0055
700.7518	0.0055
701.2391	0.0055
701.7263	0.0055
702.2134	0.0055
702.7003	0.0056
703.1872	0.0055
703.6739	0.0056
704.1604	0.0055
704.6469	0.0056
705.1332	0.0054
705.6194	0.0054
706.1055	0.0053
706.5914	0.0053
707.0773	0.0055
707.563	0.0054
708.0485	0.0054
708.534	0.0053
709.0193	0.0053
709.5045	0.0054
709.9896	0.0052
710.4746	0.0053
710.9594	0.0052
711.4441	0.0052
711.9287	0.0052
712.4132	0.0052
712.8975	0.005
713.3817	0.0051
713.8658	0.005
714.3497	0.0049
714.8336	0.005
715.3173	0.0051
715.8009	0.0049
716.2843	0.005
716.7677	0.0049
717.2509	0.0048
717.734	0.0047
718.217	0.0047
718.6998	0.0048
719.1825	0.0047
719.6651	0.0048
720.1476	0.0045
720.6299	0.0044
721.1121	0.0045
721.5942	0.0045
722.0762	0.0046
722.5581	0.0044
723.0398	0.0045
723.5214	0.0043
724.0029	0.0043
724.4842	0.0043
724.9654	0.0043
725.4465	0.0043
725.9275	0.0042
726.4084	0.0041
726.8891	0.0041
727.3697	0.0041
727.8502	0.0039
728.3305	0.0039
728.8108	0.0039
729.2909	0.0037
729.7709	0.0038
730.2507	0.0038
730.7305	0.0039
731.2101	0.0039
731.6895	0.004
732.1689	0.0036
732.6481	0.0036
733.1273	0.0035
733.6062	0.0036
734.0851	0.0035
734.5638	0.0035
735.0425	0.0034
735.521	0.0035
735.9993	0.0033
736.4776	0.0033
736.9557	0.0034
737.4337	0.0033
737.9115	0.0032
738.3893	0.0034
738.8669	0.0031
739.3444	0.0031
739.8218	0.0031
740.299	0.0031
740.7761	0.003
741.2531	0.0031
741.73	0.003
742.2068	0.0028
742.6834	0.0028
743.1599	0.0029
743.6363	0.0029
744.1125	0.0029
744.5886	0.0028
745.0646	0.0028
745.5405	0.0027
746.0163	0.0026
746.4919	0.0026
746.9674	0.0025
747.4428	0.0027
747.9181	0.0025
748.3932	0.0026
748.8682	0.0024
749.3431	0.0025
749.8178	0.0024
750.2925	0.0024
750.767	0.0026
751.2414	0.0014
751.7156	0.0024
752.1898	0.0023
752.6638	0.0025
753.1377	0.0023
753.6115	0.0022
754.0851	0.0023
754.5586	0.0022
755.032	0.0022
755.5053	0.0021
755.9784	0.0022
756.4514	0.0022
756.9243	0.002
757.3971	0.0021
757.8697	0.0021
758.3423	0.0019
758.8147	0.0018
759.2869	0.002
759.7591	0.0019
760.2311	0.0019
760.703	0.0019
761.1748	0.0019
761.6464	0.0019
762.118	0.0018
762.5894	0.0019
763.0606	0.0018
763.5318	0.0018
764.0028	0.0017
764.4737	0.0017
764.9445	0.0017
765.4152	0.0018
765.8857	0.0016
766.3561	0.001
766.8264	0.0017
767.2966	0.0017
767.7666	0.0016
768.2365	0.0015
768.7063	0.0018
769.176	0.0016
769.6455	0.0016
770.1149	0.0015
770.5842	0.0016
771.0534	0.0017
771.5224	0.0014
771.9913	0.0015
772.4601	0.0015
772.9288	0.0015
773.3973	0.0015
773.8657	0.0015
774.334	0.0013
774.8022	0.0014
775.2703	0.0013
775.7382	0.0014
776.206	0.0013
776.6736	0.0012
777.1412	0.0013
777.6086	0.0014
778.0759	0.0013
778.5431	0.0013
779.0101	0.0012
779.4771	0.0013
779.9439	0.0013
780.4105	0.0013
780.8771	0.0012
781.3435	0.0012
781.8098	0.0011
782.276	0.0012
782.7421	0.0012
783.208	0.0012
783.6738	0.0013
784.1395	0.0012
784.6051	0.0012
785.0705	0.0012
785.5358	0.0013
786.001	0.0012
786.466	0.0012
786.931	0.0012
787.3958	0.0011
787.8605	0.0012
788.325	0.0011
788.7895	0.001
789.2538	0.0012
789.718	0.0012
790.1821	0.001
790.646	0.0011
791.1098	0.0013
791.5735	0.0009
792.0371	0.0009
792.5005	0.001
792.9639	0.0008
793.427	0.0009
793.8901	0.0011
794.3531	0.0009
794.8159	0.0009
795.2786	0.001
795.7412	0.001
796.2036	0.001
796.6659	0.0007
797.1281	0.0008
797.5902	0.0009
798.0522	0.0008
798.514	0.001
798.9757	0.001
799.4373	0.0011
799.8987	0.0009
800.3601	0.0008
800.8213	0.001
801.2824	0.0009
801.7433	0.0009
802.2042	0.0008
802.6649	0.0009
803.1255	0.001
803.5859	0.0009
804.0462	0.0009
804.5065	0.0008
804.9666	0.0008
805.4265	0.0008
805.8864	0.0009
806.3461	0.0008
806.8057	0.001
807.2651	0.0007
807.7245	0.0009
808.1837	0.0008
808.6428	0.0008
809.1017	0.0007
809.5606	0.001
810.0193	0.0011
810.4779	0.0008
810.9364	0.0009
811.3947	0.0009
811.8529	0.0006
812.311	0.0009
812.769	0.0008
813.2269	0.0009
813.6846	0.0008
814.1422	0.0009
814.5997	0.0011
815.057	0.0009
815.5143	0.0004
815.9714	0.001
816.4283	0.001
816.8852	0.0007
817.3419	0.0008
817.7985	0.0009
818.255	0.0009
818.7114	0.0009
819.1676	0.001
819.6237	0.001
820.0797	0.0009
820.5356	0.0008
820.9913	0.0009
821.4469	0.0009
821.9024	0.001
822.3578	0.001
822.813	0.001
823.2681	0.0012
823.7231	0.0011
824.178	0.0011
824.6327	0.0011
825.0873	0.0011
825.5418	0.001
825.9962	0.001
826.4504	0.0013
826.9045	0.0011
827.3585	0.0012
827.8124	0.0012
828.2662	0.0012
828.7198	0.0012
829.1733	0.0014
829.6267	0.0011
830.0799	0.0013
830.533	0.0014
830.986	0.0014
831.4389	0.0013
831.8917	0.0015
832.3443	0.0015
832.7968	0.0016
833.2492	0.0014
833.7014	0.0016
834.1535	0.0016
834.6056	0.0015
835.0574	0.0017
835.5092	0.0019
835.9608	0.0019
